XDAC V1.4 Datafile V1
"Fe_pyrite.000" created on 11/3/2011 at 1:37:07 PM on X-23A2
Diffraction element= Si (311).  Ring energy= 2.80 GeV
E0= 7112.00
NUM_REGIONS= 4
SRB= -200 -20 30 60 15k
SRSS= 10 0.25 0.05k 0.05k
SPP= 0.5 0.5 0.5 0.125k
Settling time= 0.10


Offsets= 0.00 37.25 86.25 0.00
Gains= 8.00 8.00 9.00 1.00
FeS2 on tape


--------------------------------------------------------------------------------
        Energy            I0            It            Ir       IntTime
    6912.00137     4869.0000     3031.3750     6019.8750        0.5000
    6921.99811     4862.0000     3039.3750     6055.8750        0.5000
    6931.99952     4884.0000     3066.3750     6128.8750        0.5000
    6942.00100     4913.0000     3099.3750     6213.8750        0.5000
    6951.99793     4910.0000     3111.3750     6252.8750        0.5000
    6961.99916     4903.0000     3120.3750     6286.8750        0.5000
    6972.00005     4889.0000     3126.3750     6313.8750        0.5000
    6982.00050     4892.0000     3143.3750     6365.8750        0.5000
    6992.00035     4891.0000     3157.3750     6413.8750        0.5000
    7001.99948     4894.0000     3174.3750     6462.8750        0.5000
    7011.99777     4891.0000     3186.3750     6497.8750        0.5000
    7021.99962     4860.0000     3180.3750     6496.8750        0.5000
    7032.00039     4878.0000     3206.3750     6554.8750        0.5000
    7041.99992     4863.0000     3208.3750     6571.8750        0.5000
    7051.99811     4856.0000     3216.3750     6599.8750        0.5000
    7061.99940     4876.0000     3243.3750     6680.8750        0.5000
    7071.99909     4901.0000     3275.3750     6775.8750        0.5000
    7082.00166     4906.0000     3291.3750     6826.8750        0.5000
    7091.99780     4899.0000     3299.3750     6847.8750        0.5000
    7092.25090     4892.0000     3294.3750     6838.8750        0.5000
    7092.49942     4902.0000     3301.3750     6857.8750        0.5000
    7092.74794     4896.0000     3298.3750     6851.8750        0.5000
    7093.00108     4900.0000     3301.3750     6852.8750        0.5000
    7093.24962     4903.0000     3302.3750     6857.8750        0.5000
    7093.49818     4898.0000     3300.3750     6852.8750        0.5000
    7093.75135     4897.0000     3300.3750     6851.8750        0.5000
    7093.99992     4894.0000     3297.3750     6847.8750        0.5000
    7094.24851     4888.0000     3295.3750     6842.8750        0.5000
    7094.50171     4890.0000     3295.3750     6842.8750        0.5000
    7094.75031     4897.0000     3301.3750     6854.8750        0.5000
    7094.99893     4888.0000     3296.3750     6844.8750        0.5000
    7095.25216     4900.0000     3305.3750     6864.8750        0.5000
    7095.50080     4904.0000     3307.3750     6869.8750        0.5000
    7095.74944     4897.0000     3302.3750     6860.8750        0.5000
    7095.99810     4894.0000     3300.3750     6849.8750        0.5000
    7096.25137     4894.0000     3300.3750     6853.8750        0.5000
    7096.50005     4891.0000     3297.3750     6849.8750        0.5000
    7096.74874     4892.0000     3299.3750     6851.8750        0.5000
    7097.00204     4906.0000     3310.3750     6872.8750        0.5000
    7097.25075     4899.0000     3305.3750     6865.8750        0.5000
    7097.49947     4900.0000     3306.3750     6864.8750        0.5000
    7097.74820     4891.0000     3300.3750     6850.8750        0.5000
    7098.00154     4893.0000     3301.3750     6853.8750        0.5000
    7098.25029     4888.0000     3299.3750     6846.8750        0.5000
    7098.49905     4912.0000     3315.3750     6881.8750        0.5000
    7098.74782     4903.0000     3309.3750     6868.8750        0.5000
    7099.00121     4891.0000     3303.3750     6854.8750        0.5000
    7099.25000     4899.0000     3308.3750     6864.8750        0.5000
    7099.49880     4891.0000     3302.3750     6853.8750        0.5000
    7099.75221     4894.0000     3305.3750     6860.8750        0.5000
    7100.00103     4892.0000     3303.3750     6852.8750        0.5000
    7100.24986     4894.0000     3305.3750     6855.8750        0.5000
    7100.49871     4883.0000     3297.3750     6843.8750        0.5000
    7100.75216     4893.0000     3306.3750     6855.8750        0.5000
    7101.00103     4882.0000     3297.3750     6836.8750        0.5000
    7101.24990     4887.0000     3301.3750     6848.8750        0.5000
    7101.49878     4889.0000     3302.3750     6851.8750        0.5000
    7101.75228     4892.0000     3304.3750     6852.8750        0.5000
    7102.00118     4891.0000     3304.3750     6852.8750        0.5000
    7102.25009     4892.0000     3306.3750     6854.8750        0.5000
    7102.49901     4885.0000     3303.3750     6847.8750        0.5000
    7102.74795     4900.0000     3311.3750     6865.8750        0.5000
    7103.00150     4895.0000     3309.3750     6856.8750        0.5000
    7103.25045     4886.0000     3302.3750     6840.8750        0.5000
    7103.49941     4896.0000     3310.3750     6854.8750        0.5000
    7103.74839     4886.0000     3303.3750     6838.8750        0.5000
    7104.00198     4891.0000     3307.3750     6847.8750        0.5000
    7104.25098     4876.0000     3297.3750     6824.8750        0.5000
    7104.49998     4880.0000     3299.3750     6830.8750        0.5000
    7104.74899     4901.0000     3313.3750     6855.8750        0.5000
    7104.99802     4888.0000     3305.3750     6835.8750        0.5000
    7105.25166     4896.0000     3310.3750     6843.8750        0.5000
    7105.50071     4890.0000     3307.3750     6836.8750        0.5000
    7105.74976     4889.0000     3305.3750     6827.8750        0.5000
    7105.99883     4888.0000     3305.3750     6825.8750        0.5000
    7106.24790     4891.0000     3308.3750     6832.8750        0.5000
    7106.50160     4875.0000     3297.3750     6803.8750        0.5000
    7106.75069     4880.0000     3300.3750     6806.8750        0.5000
    7106.99980     4880.0000     3301.3750     6806.8750        0.5000
    7107.24891     4878.0000     3298.3750     6801.8750        0.5000
    7107.49804     4884.0000     3302.3750     6803.8750        0.5000
    7107.75179     4880.0000     3300.3750     6790.8750        0.5000
    7108.00093     4878.0000     3298.3750     6783.8750        0.5000
    7108.25009     4877.0000     3297.3750     6774.8750        0.5000
    7108.49926     4877.0000     3298.3750     6767.8750        0.5000
    7108.74843     4881.0000     3300.3750     6765.8750        0.5000
    7109.00223     4882.0000     3300.3750     6757.8750        0.5000
    7109.25143     4874.0000     3295.3750     6743.8750        0.5000
    7109.50064     4866.0000     3288.3750     6715.8750        0.5000
    7109.74985     4873.0000     3294.3750     6707.8750        0.5000
    7109.99908     4877.0000     3294.3750     6695.8750        0.5000
    7110.24832     4878.0000     3295.3750     6674.8750        0.5000
    7110.50218     4864.0000     3284.3750     6629.8750        0.5000
    7110.75144     4868.0000     3286.3750     6599.8750        0.5000
    7111.00071     4876.0000     3289.3750     6570.8750        0.5000
    7111.24998     4863.0000     3278.3750     6490.8750        0.5000
    7111.49927     4861.0000     3274.3750     6410.8750        0.5000
    7111.74857     4870.0000     3276.3750     6304.8750        0.5000
    7111.99788     4865.0000     3264.3750     6109.8750        0.5000
    7112.25181     4863.0000     3256.3750     5913.8750        0.5000
    7112.50114     4859.0000     3241.3750     5706.8750        0.5000
    7112.75048     4871.0000     3238.3750     5556.8750        0.5000
    7112.99983     4864.0000     3226.3750     5448.8750        0.5000
    7113.24919     4873.0000     3224.3750     5355.8750        0.5000
    7113.49856     4862.0000     3213.3750     5264.8750        0.5000
    7113.74794     4860.0000     3211.3750     5187.8750        0.5000
    7114.00194     4854.0000     3207.3750     5125.8750        0.5000
    7114.25134     4857.0000     3209.3750     5072.8750        0.5000
    7114.50075     4853.0000     3207.3750     5015.8750        0.5000
    7114.75017     4862.0000     3214.3750     4969.8750        0.5000
    7114.99960     4850.0000     3206.3750     4912.8750        0.5000
    7115.24904     4862.0000     3216.3750     4889.8750        0.5000
    7115.49849     4868.0000     3221.3750     4869.8750        0.5000
    7115.74795     4851.0000     3210.3750     4826.8750        0.5000
    7116.00204     4853.0000     3210.3750     4806.8750        0.5000
    7116.25152     4855.0000     3208.3750     4787.8750        0.5000
    7116.50101     4844.0000     3192.3750     4756.8750        0.5000
    7116.75052     4857.0000     3192.3750     4749.8750        0.5000
    7117.00003     4850.0000     3172.3750     4713.8750        0.5000
    7117.24955     4848.0000     3147.3750     4660.8750        0.5000
    7117.49908     4867.0000     3133.3750     4624.8750        0.5000
    7117.74862     4844.0000     3077.3750     4517.8750        0.5000
    7117.99817     4846.0000     3025.3750     4395.8750        0.5000
    7118.24773     4850.0000     2976.3750     4279.8750        0.5000
    7118.50193     4848.0000     2931.3750     4154.8750        0.5000
    7118.75151     4838.0000     2899.3750     4048.8750        0.5000
    7119.00110     4841.0000     2877.3750     3946.8750        0.5000
    7119.25070     4830.0000     2844.3750     3828.8750        0.5000
    7119.50031     4840.0000     2817.3750     3708.8750        0.5000
    7119.74994     4840.0000     2791.3750     3610.8750        0.5000
    7119.99957     4846.0000     2768.3750     3512.8750        0.5000
    7120.24921     4839.0000     2747.3750     3428.8750        0.5000
    7120.49886     4856.0000     2738.3750     3345.8750        0.5000
    7120.74853     4848.0000     2722.3750     3262.8750        0.5000
    7120.99820     4830.0000     2708.3750     3181.8750        0.5000
    7121.24788     4836.0000     2709.3750     3131.8750        0.5000
    7121.50220     4845.0000     2713.3750     3068.8750        0.5000
    7121.75190     4837.0000     2708.3750     3010.8750        0.5000
    7122.00161     4837.0000     2706.3750     2956.8750        0.5000
    7122.25134     4835.0000     2702.3750     2918.8750        0.5000
    7122.50107     4810.0000     2683.3750     2856.8750        0.5000
    7122.75082     4827.0000     2683.3750     2817.8750        0.5000
    7123.00057     4827.0000     2674.3750     2773.8750        0.5000
    7123.25033     4834.0000     2666.3750     2735.8750        0.5000
    7123.50011     4815.0000     2646.3750     2685.8750        0.5000
    7123.74989     4815.0000     2635.3750     2641.8750        0.5000
    7123.99968     4823.0000     2626.3750     2611.8750        0.5000
    7124.24949     4810.0000     2608.3750     2562.8750        0.5000
    7124.49930     4814.0000     2598.3750     2530.8750        0.5000
    7124.74913     4816.0000     2586.3750     2500.8750        0.5000
    7124.99896     4811.0000     2572.3750     2463.8750        0.5000
    7125.24881     4813.0000     2563.3750     2434.8750        0.5000
    7125.49866     4815.0000     2552.3750     2406.8750        0.5000
    7125.74852     4812.0000     2546.3750     2384.8750        0.5000
    7125.99840     4811.0000     2540.3750     2367.8750        0.5000
    7126.24828     4801.0000     2528.3750     2341.8750        0.5000
    7126.49818     4738.0000     2486.3750     2308.8750        0.5000
    7126.74808     4711.0000     2464.3750     2229.8750        0.5000
    7126.99800     4775.0000     2489.3750     2247.8750        0.5000
    7127.24792     4787.0000     2488.3750     2236.8750        0.5000
    7127.49786     4795.0000     2483.3750     2213.8750        0.5000
    7127.74780     4772.0000     2461.3750     2176.8750        0.5000
    7127.99776     4792.0000     2464.3750     2161.8750        0.5000
    7128.24772     4788.0000     2455.3750     2134.8750        0.5000
    7128.49770     4784.0000     2445.3750     2106.8750        0.5000
    7128.74769     4773.0000     2430.3750     2076.8750        0.5000
    7129.00231     4771.0000     2417.3750     2035.8750        0.5000
    7129.24769     4777.0000     2411.3750     2014.8750        0.5000
    7129.49770     4781.0000     2403.3750     1986.8750        0.5000
    7129.74773     4782.0000     2391.3750     1950.8750        0.5000
    7129.99776     4764.0000     2368.3750     1908.8750        0.5000
    7130.24781     4777.0000     2362.3750     1882.8750        0.5000
    7130.49787     4767.0000     2343.3750     1849.8750        0.5000
    7130.74793     4709.0000     2306.3750     1818.8750        0.5000
    7130.99801     4676.0000     2280.3750     1755.8750        0.5000
    7131.24810     4740.0000     2303.3750     1767.8750        0.5000
    7131.49819     4757.0000     2304.3750     1763.8750        0.5000
    7131.74830     4755.0000     2299.3750     1757.8750        0.5000
    7131.99842     4755.0000     2293.3750     1754.8750        0.5000
    7132.24854     4761.0000     2293.3750     1758.8750        0.5000
    7132.49868     4750.0000     2283.3750     1760.8750        0.5000
    7132.74883     4760.0000     2284.3750     1772.8750        0.5000
    7132.99898     4763.0000     2282.3750     1783.8750        0.5000
    7133.24915     4755.0000     2276.3750     1797.8750        0.5000
    7133.49933     4756.0000     2272.3750     1814.8750        0.5000
    7133.74951     4749.0000     2266.3750     1822.8750        0.5000
    7133.99971     4755.0000     2265.3750     1837.8750        0.5000
    7134.24992     4744.0000     2258.3750     1847.8750        0.5000
    7134.50013     4753.0000     2261.3750     1862.8750        0.5000
    7134.75036     4768.0000     2265.3750     1886.8750        0.5000
    7135.00060     4748.0000     2255.3750     1891.8750        0.5000
    7135.25085     4753.0000     2256.3750     1907.8750        0.5000
    7135.50110     4756.0000     2258.3750     1922.8750        0.5000
    7135.75137     4756.0000     2256.3750     1933.8750        0.5000
    7136.00165     4750.0000     2252.3750     1943.8750        0.5000
    7136.25194     4757.0000     2256.3750     1952.8750        0.5000
    7136.50223     4761.0000     2258.3750     1964.8750        0.5000
    7136.74791     4751.0000     2253.3750     1964.8750        0.5000
    7136.99822     4769.0000     2261.3750     1975.8750        0.5000
    7137.24855     4760.0000     2257.3750     1975.8750        0.5000
    7137.49889     4744.0000     2251.3750     1969.8750        0.5000
    7137.74924     4748.0000     2251.3750     1973.8750        0.5000
    7137.99960     4753.0000     2256.3750     1976.8750        0.5000
    7138.24996     4745.0000     2252.3750     1970.8750        0.5000
    7138.50034     4751.0000     2257.3750     1973.8750        0.5000
    7138.75073     4750.0000     2257.3750     1970.8750        0.5000
    7139.00113     4742.0000     2256.3750     1963.8750        0.5000
    7139.25154     4749.0000     2261.3750     1961.8750        0.5000
    7139.50195     4752.0000     2263.3750     1961.8750        0.5000
    7139.74774     4747.0000     2264.3750     1954.8750        0.5000
    7139.99818     4753.0000     2267.3750     1950.8750        0.5000
    7140.24863     4756.0000     2271.3750     1947.8750        0.5000
    7140.49909     4763.0000     2278.3750     1946.8750        0.5000
    7140.74956     4760.0000     2278.3750     1941.8750        0.5000
    7141.00004     4758.0000     2279.3750     1939.8750        0.5000
    7141.25052     4756.0000     2281.3750     1934.8750        0.5000
    7141.50102     4755.0000     2285.3750     1931.8750        0.5000
    7141.75153     4742.0000     2281.3750     1923.8750        0.5000
    7143.07847     4761.0000     2307.3750     1937.8750        0.5000
    7144.17827     4746.0000     2316.3750     1955.8750        0.5000
    7145.29220     4746.0000     2335.3750     1981.8750        0.5000
    7146.42953     4747.0000     2354.3750     1997.8750        0.5000
    7147.58565     4754.0000     2377.3750     1996.8750        0.5000
    7148.75592     4749.0000     2389.3750     1974.8750        0.5000
    7149.94962     4746.0000     2401.3750     1947.8750        0.5000
    7151.16214     4737.0000     2409.3750     1925.8750        0.5000
    7152.39348     4693.0000     2401.3750     1913.8750        0.5000
    7153.64366     4733.0000     2435.3750     1922.8750        0.5000
    7154.91268     4753.0000     2456.3750     1933.8750        0.5000
    7156.20055     4744.0000     2459.3750     1942.8750        0.5000
    7157.50730     4673.0000     2430.3750     1914.8750        0.5000
    7158.83292     4747.0000     2479.3750     1976.8750        0.5000
    7160.18208     4738.0000     2486.3750     1984.8750        0.5000
    7161.54549     4762.0000     2510.3750     2007.8750        0.5000
    7162.92782     4762.0000     2519.3750     2018.8750        0.5000
    7164.32907     4756.0000     2518.3750     2028.8750        0.5000
    7165.75392     4767.0000     2520.3750     2042.8750        0.5000
    7167.19306     4776.0000     2517.3750     2050.8750        0.5000
    7168.65117     4785.0000     2510.3750     2053.8750        0.5000
    7170.13291     4785.0000     2501.3750     2049.8750        0.5000
    7171.62898     4788.0000     2493.3750     2052.8750        0.5000
    7173.52171     4821.0000     2502.3005     2079.7025        0.5020
    7175.06056     4897.0000     2535.0397     2128.0988        0.5090
    7176.62310     4954.0000     2556.8162     2176.5813        0.5150
    7178.20002     5018.0000     2579.5927     2229.0637        0.5210
    7179.79600     5065.0000     2595.3693     2277.5462        0.5270
    7181.41573     5153.0000     2631.1085     2337.9425        0.5340
    7183.04987     5223.0000     2660.8850     2378.4250        0.5400
    7184.70312     5292.0000     2693.6615     2405.9075        0.5460
    7186.38015     5351.0000     2722.4380     2424.3900        0.5520
    7188.07164     5415.0000     2753.1773     2429.7863        0.5590
    7189.78228     5495.0000     2791.9538     2429.2688        0.5650
    7191.51676     5568.0000     2827.7303     2425.7512        0.5710
    7193.26573     5626.0000     2854.5068     2407.2337        0.5770
    7195.03389     5705.0000     2892.2460     2403.6300        0.5840
    7196.82126     5768.0000     2920.0225     2415.1125        0.5900
    7198.62785     5823.0000     2942.7990     2451.5950        0.5960
    7200.45368     5875.0000     2963.5755     2510.0775        0.6020
    7202.30344     5956.0000     3005.3148     2594.4738        0.6090
    7204.16778     6017.0000     3047.0912     2688.9563        0.6150
    7206.05141     6061.0000     3089.8677     2793.4387        0.6210
    7207.94966     6130.0000     3150.6442     2894.9212        0.6270
    7209.87190     6200.0000     3207.3835     2958.3175        0.6340
    7211.81348     6269.0000     3264.1600     2955.8000        0.6400
    7213.77441     6306.0000     3304.9365     2879.2825        0.6460
    7215.75000     6381.0000     3362.7130     2795.7650        0.6520
    7217.74968     6453.0000     3419.4522     2715.1613        0.6590
    7219.76875     6512.0000     3468.2288     2658.6438        0.6650
    7221.80255     6579.0000     3517.0053     2655.1262        0.6710
    7223.85577     6625.0000     3548.7818     2700.6087        0.6770
    7225.93315     6713.0000     3598.5210     2820.0050        0.6840
    7228.02529     6758.0000     3618.2975     2949.4875        0.6900
    7230.13692     6827.0000     3648.0740     3101.9700        0.6960
    7232.26805     6898.0000     3678.8505     3258.4525        0.7020
